File: npm/@crsincca/xrd-main-menu-module
1588305600,1024003,
1590984000,1028290,
1593576000,1032462,
1596254400,1036822,
1598932800,1041232,
1601524800,1045754,
1604203200,1049900,1
1606798800,1054063,2
1609477200,1058399,3
1612155600,1063188,4
1614574800,1067789,5
1617249600,1074872,6
1619841600,1080945,7
1622520000,1086579,8
1625112000,1097329,9
1627790400,1102499,10