File: npm/@crsincca/xrd-graph-module
1588305600,1024021,
1590984000,1028307,
1593576000,1032479,
1596254400,1036839,
1598932800,1041249,
1601524800,1045771,
1604203200,1049917,1
1606798800,1054080,2
1609477200,1058416,3
1612155600,1063205,4
1614574800,1067806,5
1617249600,1074889,6
1619841600,1080962,7
1622520000,1086596,8
1625112000,1097346,9
1627790400,1102515,10