File: npm/@crsincca/xrd-dispatch-module
1588305600,65892,
1590984000,68193,
1593576000,69246,
1596254400,70329,
1598932800,71388,
1601524800,72528,
1604203200,73566,1
1606798800,74580,2
1609477200,75633,3
1612155600,76904,4
1614574800,78005,5
1617249600,80931,6
1619841600,82934,7
1622520000,84512,8
1625112000,87488,9