File: npm/@crsincca/xrd-main-gui-module
1588305600,1023951,
1590984000,1028238,
1593576000,1032410,
1596254400,1036770,
1598932800,1041181,
1601524800,1045703,
1604203200,1049849,1
1606798800,1054011,2
1609477200,1058347,3
1612155600,1063136,4
1614574800,1067737,5
1617249600,1074820,6
1619841600,1080893,7
1622520000,1086527,8
1625112000,1097277,9
1627790400,1102448,10