File: npm/@crsincca/xrd-data-provider-module
1588305600,1024018,
1590984000,1028304,
1593576000,1032476,
1596254400,1036836,
1598932800,1041246,
1601524800,1045768,
1604203200,1049914,1
1606798800,1054077,2
1609477200,1058413,3
1612155600,1063202,4
1614574800,1067803,5
1617249600,1074886,6
1619841600,1080959,7
1622520000,1086593,8
1625112000,1097343,9
1627790400,1102512,10