File: npm/@crsincca/xrd-load-file-module
1588305600,1024009,
1590984000,1028296,
1593576000,1032468,
1596254400,1036828,
1598932800,1041238,
1601524800,1045760,
1604203200,1049906,1
1606798800,1054069,2
1609477200,1058405,3
1612155600,1063194,4
1614574800,1067795,5
1617249600,1074878,6
1619841600,1080951,7
1622520000,1086585,8
1625112000,1097335,9