File: npm/dsc-polymer-carousel
1488344400,341813,
1491019200,344627,
1493611200,347528,
1496289600,350554,
1498881600,354028,
1501560000,357471,
1504238400,360880,1
1506830400,363980,2
1509508800,367719,3
1512104400,371354,4
1514782800,375008,5
1517461200,379309,6
1519880400,383047,7
1522555200,387375,8
1525147200,391481,9
1527825600,395723,10
1530417600,400191,11
1533096000,404794,12
1535774400,409200,13
1538366400,413658,14
1541044800,417951,15
1543640400,422877,16
1546318800,426809,17
1548997200,431583,18
1551416400,436284,19
1554091200,441770,20
1556683200,446669,21
1559361600,451765,22
1561953600,456522,23
1564632000,461557,24
1567310400,466465,25
1569902400,471423,26
1572580800,476302,27
1575176400,481163,28
1577854800,486041,29
1580533200,490985,30
1583038800,495455,31
1585713600,500815,32
1588305600,506112,33
1590984000,511574,34
1593576000,516651,35
1596254400,521816,36
1598932800,526803,37
1601524800,531974,38
1604203200,536757,39
1606798800,541449,40
1609477200,546292,41
1612155600,551536,42
1614574800,556537,43
1617249600,564059,44
1619841600,570517,45
1622520000,576455,46
1625112000,588072,47
1627790400,593517,48