File: npm/tga
1488344400,44053,
1491019200,45554,
1493611200,46885,
1496289600,48248,
1498881600,49668,
1501560000,27783,
1504238400,28570,
1506830400,29262,
1509508800,30099,
1512104400,21430,
1514782800,22032,
1517461200,22595,
1519880400,23191,
1522555200,23743,
1525147200,24380,1
1527825600,24927,2
1530417600,25574,3
1533096000,23384,
1535774400,29529,
1538366400,30250,
1541044800,30890,
1543640400,31592,
1546318800,30198,
1548997200,30870,
1551416400,31639,
1554091200,32388,
1556683200,33095,
1559361600,33836,1
1561953600,34476,2
1564632000,35160,3
1567310400,35849,4
1569902400,36545,5
1572580800,37208,6
1575176400,37217,7
1577854800,37898,8
1580533200,38536,9
1583038800,39107,10
1585713600,39773,11
1588305600,40444,12
1590984000,41226,13
1593576000,41881,14
1596254400,42539,15
1598932800,43150,16
1601524800,43821,17
1604203200,44404,18
1606798800,44990,19
1609477200,45596,20
1612155600,46291,21
1614574800,46905,22
1617249600,46274,
1619841600,47597,
1622520000,48492,
1625112000,48021,
1627790400,48735,