File: npm/tga-js
1551416400,746451,
1554091200,750778,
1556683200,755007,
1559361600,759386,
1561953600,763573,
1564632000,767968,
1567310400,772317,1
1569902400,776866,2
1572580800,781302,3
1575176400,785823,4
1577854800,790342,5
1580533200,794997,6
1583038800,799266,7
1585713600,804408,8
1588305600,809563,9
1590984000,814943,10
1593576000,819875,11
1596254400,824997,12
1598932800,830034,13
1601524800,835169,14
1604203200,239548,0
1606798800,244746,0