File: npm/tga-loader
1512104400,474526,
1514782800,477603,
1517461200,481289,
1519880400,484629,
1522555200,488510,
1525147200,492294,
1527825600,496266,1
1530417600,500486,2
1533096000,504855,3
1535774400,509052,4
1538366400,513316,5
1541044800,517496,6
1543640400,522228,7
1546318800,525980,8
1548997200,530597,9
1551416400,535182,10
1554091200,540572,11
1556683200,545528,12
1559361600,550541,13
1561953600,555276,14
1564632000,560242,15
1567310400,565049,16
1569902400,569974,17
1572580800,574816,18
1575176400,579665,19
1577854800,584477,20
1580533200,589431,21
1583038800,593957,22
1585713600,599365,23
1588305600,604776,24
1590984000,610420,25
1593576000,615554,26
1596254400,620875,27
1598932800,626060,28
1601524800,631369,29
1604203200,637124,30
1606798800,643625,31