File: npm/tga-spectrum
1583038800,991751,
1585713600,995805,
1588305600,1000201,
1590984000,1005002,
1593576000,1009513,
1596254400,1014214,
1598932800,1018906,1
1601524800,1023693,2
1604203200,1028984,3
1606798800,1035056,4