File: npm/tga-client-sdk
1535774400,631453,
1538366400,635003,
1541044800,638715,
1543640400,643027,
1546318800,646430,
1548997200,650683,
1551416400,654901,1
1554091200,659944,2
1556683200,664627,3
1559361600,669418,4
1561953600,673939,5
1564632000,678653,6
1567310400,683264,7
1569902400,688010,8
1572580800,692645,9
1575176400,697325,10
1577854800,701998,11
1580533200,706813,12
1583038800,711212,13
1585713600,716500,14
1588305600,721786,15
1590984000,727338,16
1593576000,732366,17
1596254400,737590,18
1598932800,742686,19
1601524800,747917,20
1604203200,753599,21
1606798800,759995,22