File: npm/xrd
1583038800,987923,
1585713600,992067,
1588305600,996488,
1590984000,1001308,
1593576000,219617,
1596254400,223387,
1598932800,227203,0
1601524800,230728,0
1604203200,235089,0
1606798800,240177,1