File: npm/xrd-analysis
1593576000,1074264,
1596254400,1078266,
1598932800,1082472,
1601524800,1086792,
1604203200,1090796,
1606798800,1094911,
1609477200,1099149,1
1612155600,1103857,2
1614574800,1108386,3
1617249600,1115384,4
1619841600,1121392,5
1622520000,1126978,6
1625112000,1137569,7