File: npm/xrd-cli
1564632000,853749,
1567310400,857408,
1569902400,861562,
1572580800,865650,
1575176400,869931,
1577854800,874134,
1580533200,878607,1
1583038800,882731,2
1585713600,887658,3
1588305600,892604,4
1590984000,897834,5
1593576000,902621,6
1596254400,907618,7
1598932800,912543,8
1601524800,917553,9
1604203200,923046,10
1606798800,929277,11